ENVI ASCII Plot File [Wed Jul  1 16:21:15 2009]
Column 1: X Axis
Column 2: spectrum #1~~2
   350.000000    6.227762
   351.000000    6.201578
   352.000000    6.200506
   353.000000    6.195889
   354.000000    6.136322
   355.000000    6.099258
   356.000000    6.109899
   357.000000    6.128391
   358.000000    6.169796
   359.000000    6.201576
   360.000000    6.192457
   361.000000    6.160814
   362.000000    6.118483
   363.000000    6.074814
   364.000000    6.050586
   365.000000    6.036593
   366.000000    6.040972
   367.000000    6.061545
   368.000000    6.055179
   369.000000    6.059370
   370.000000    6.042612
   371.000000    5.979620
   372.000000    6.017659
   373.000000    6.046612
   374.000000    6.066108
   375.000000    6.078217
   376.000000    6.042804
   377.000000    6.020570
   378.000000    6.017624
   379.000000    5.999745
   380.000000    6.039865
   381.000000    6.074118
   382.000000    6.070094
   383.000000    6.049900
   384.000000    6.066150
   385.000000    6.085848
   386.000000    6.064121
   387.000000    6.069809
   388.000000    6.128666
   389.000000    6.200489
   390.000000    6.139064
   391.000000    6.046088
   392.000000    6.002880
   393.000000    6.025824
   394.000000    6.009633
   395.000000    6.049107
   396.000000    6.092755
   397.000000    6.105568
   398.000000    6.089373
   399.000000    6.076127
   400.000000    6.073108
   401.000000    6.095490
   402.000000    6.090323
   403.000000    6.088591
   404.000000    6.092385
   405.000000    6.077256
   406.000000    6.070863
   407.000000    6.066005
   408.000000    6.058890
   409.000000    6.073461
   410.000000    6.089075
   411.000000    6.101647
   412.000000    6.104547
   413.000000    6.086600
   414.000000    6.072423
   415.000000    6.066751
   416.000000    6.077434
   417.000000    6.103728
   418.000000    6.117061
   419.000000    6.107256
   420.000000    6.112921
   421.000000    6.104067
   422.000000    6.091819
   423.000000    6.087543
   424.000000    6.104420
   425.000000    6.115817
   426.000000    6.120917
   427.000000    6.123213
   428.000000    6.125773
   429.000000    6.125875
   430.000000    6.125908
   431.000000    6.157868
   432.000000    6.162140
   433.000000    6.147124
   434.000000    6.116591
   435.000000    6.137782
   436.000000    6.145360
   437.000000    6.147506
   438.000000    6.163185
   439.000000    6.185284
   440.000000    6.192529
   441.000000    6.183682
   442.000000    6.174751
   443.000000    6.172480
   444.000000    6.167847
   445.000000    6.156396
   446.000000    6.183453
   447.000000    6.190743
   448.000000    6.188448
   449.000000    6.189870
   450.000000    6.191937
   451.000000    6.185491
   452.000000    6.175948
   453.000000    6.190506
   454.000000    6.191409
   455.000000    6.192865
   456.000000    6.199674
   457.000000    6.196915
   458.000000    6.188501
   459.000000    6.184624
   460.000000    6.197049
   461.000000    6.202544
   462.000000    6.203344
   463.000000    6.198874
   464.000000    6.186220
   465.000000    6.195720
   466.000000    6.199720
   467.000000    6.194717
   468.000000    6.220563
   469.000000    6.216340
   470.000000    6.203213
   471.000000    6.195248
   472.000000    6.179877
   473.000000    6.165951
   474.000000    6.161993
   475.000000    6.186289
   476.000000    6.197812
   477.000000    6.205635
   478.000000    6.210804
   479.000000    6.210258
   480.000000    6.200166
   481.000000    6.191080
   482.000000    6.188974
   483.000000    6.202290
   484.000000    6.205117
   485.000000    6.204523
   486.000000    6.209964
   487.000000    6.197729
   488.000000    6.190325
   489.000000    6.191821
   490.000000    6.209992
   491.000000    6.213044
   492.000000    6.210197
   493.000000    6.204888
   494.000000    6.205583
   495.000000    6.196214
   496.000000    6.192596
   497.000000    6.211017
   498.000000    6.223728
   499.000000    6.224389
   500.000000    6.214915
   501.000000    6.199405
   502.000000    6.206173
   503.000000    6.213559
   504.000000    6.219366
   505.000000    6.245804
   506.000000    6.245540
   507.000000    6.237964
   508.000000    6.234594
   509.000000    6.237401
   510.000000    6.232710
   511.000000    6.230507
   512.000000    6.249958
   513.000000    6.241473
   514.000000    6.233385
   515.000000    6.230058
   516.000000    6.229938
   517.000000    6.242491
   518.000000    6.257262
   519.000000    6.269654
   520.000000    6.270040
   521.000000    6.268785
   522.000000    6.263977
   523.000000    6.252619
   524.000000    6.250981
   525.000000    6.257464
   526.000000    6.267594
   527.000000    6.268360
   528.000000    6.262612
   529.000000    6.257789
   530.000000    6.256322
   531.000000    6.258723
   532.000000    6.261268
   533.000000    6.266171
   534.000000    6.275484
   535.000000    6.272083
   536.000000    6.268429
   537.000000    6.266674
   538.000000    6.270882
   539.000000    6.270585
   540.000000    6.276663
   541.000000    6.288077
   542.000000    6.286200
   543.000000    6.286184
   544.000000    6.288897
   545.000000    6.294923
   546.000000    6.290271
   547.000000    6.297192
   548.000000    6.307853
   549.000000    6.311222
   550.000000    6.309470
   551.000000    6.304542
   552.000000    6.296016
   553.000000    6.280750
   554.000000    6.284558
   555.000000    6.295967
   556.000000    6.310500
   557.000000    6.320433
   558.000000    6.325604
   559.000000    6.326945
   560.000000    6.324768
   561.000000    6.326757
   562.000000    6.336145
   563.000000    6.346078
   564.000000    6.336097
   565.000000    6.329566
   566.000000    6.320554
   567.000000    6.308293
   568.000000    6.301935
   569.000000    6.311154
   570.000000    6.318968
   571.000000    6.312853
   572.000000    6.308114
   573.000000    6.305436
   574.000000    6.300312
   575.000000    6.283047
   576.000000    6.292790
   577.000000    6.301717
   578.000000    6.305303
   579.000000    6.306332
   580.000000    6.306186
   581.000000    6.301410
   582.000000    6.290063
   583.000000    6.293817
   584.000000    6.306828
   585.000000    6.316686
   586.000000    6.303722
   587.000000    6.316584
   588.000000    6.328922
   589.000000    6.333539
   590.000000    6.313223
   591.000000    6.311352
   592.000000    6.310165
   593.000000    6.303677
   594.000000    6.297199
   595.000000    6.293709
   596.000000    6.288653
   597.000000    6.277316
   598.000000    6.286170
   599.000000    6.302257
   600.000000    6.315271
   601.000000    6.300598
   602.000000    6.310120
   603.000000    6.302098
   604.000000    6.271331
   605.000000    6.262263
   606.000000    6.265628
   607.000000    6.271359
   608.000000    6.273078
   609.000000    6.274885
   610.000000    6.266255
   611.000000    6.250405
   612.000000    6.232140
   613.000000    6.243705
   614.000000    6.249675
   615.000000    6.248342
   616.000000    6.258131
   617.000000    6.260264
   618.000000    6.249743
   619.000000    6.224265
   620.000000    6.225479
   621.000000    6.232948
   622.000000    6.239859
   623.000000    6.237504
   624.000000    6.245847
   625.000000    6.248244
   626.000000    6.246918
   627.000000    6.254441
   628.000000    6.259375
   629.000000    6.263410
   630.000000    6.266800
   631.000000    6.266421
   632.000000    6.261214
   633.000000    6.248416
   634.000000    6.224412
   635.000000    6.227681
   636.000000    6.235136
   637.000000    6.244656
   638.000000    6.253753
   639.000000    6.257694
   640.000000    6.253500
   641.000000    6.241993
   642.000000    6.235552
   643.000000    6.236811
   644.000000    6.237296
   645.000000    6.231686
   646.000000    6.241712
   647.000000    6.235836
   648.000000    6.221993
   649.000000    6.211720
   650.000000    6.217723
   651.000000    6.227336
   652.000000    6.235794
   653.000000    6.227598
   654.000000    6.210141
   655.000000    6.199494
   656.000000    6.201483
   657.000000    6.210359
   658.000000    6.218885
   659.000000    6.223049
   660.000000    6.217304
   661.000000    6.210534
   662.000000    6.191883
   663.000000    6.169636
   664.000000    6.171835
   665.000000    6.186355
   666.000000    6.197445
   667.000000    6.200608
   668.000000    6.199726
   669.000000    6.197256
   670.000000    6.191893
   671.000000    6.182299
   672.000000    6.182044
   673.000000    6.175503
   674.000000    6.170715
   675.000000    6.184560
   676.000000    6.191100
   677.000000    6.185018
   678.000000    6.171211
   679.000000    6.182929
   680.000000    6.186877
   681.000000    6.181472
   682.000000    6.164331
   683.000000    6.167094
   684.000000    6.170489
   685.000000    6.169645
   686.000000    6.157825
   687.000000    6.171479
   688.000000    6.180986
   689.000000    6.182500
   690.000000    6.171322
   691.000000    6.165723
   692.000000    6.151159
   693.000000    6.125563
   694.000000    6.141323
   695.000000    6.158252
   696.000000    6.169488
   697.000000    6.167269
   698.000000    6.162492
   699.000000    6.147845
   700.000000    6.130733
   701.000000    6.129924
   702.000000    6.135405
   703.000000    6.140867
   704.000000    6.144108
   705.000000    6.139522
   706.000000    6.128083
   707.000000    6.118498
   708.000000    6.116785
   709.000000    6.136358
   710.000000    6.140958
   711.000000    6.136154
   712.000000    6.131430
   713.000000    6.112835
   714.000000    6.098509
   715.000000    6.095619
   716.000000    6.115632
   717.000000    6.120508
   718.000000    6.125793
   719.000000    6.137505
   720.000000    6.117191
   721.000000    6.106098
   722.000000    6.102180
   723.000000    6.103861
   724.000000    6.100774
   725.000000    6.096184
   726.000000    6.091030
   727.000000    6.087108
   728.000000    6.085312
   729.000000    6.080257
   730.000000    6.071452
   731.000000    6.075939
   732.000000    6.084855
   733.000000    6.089823
   734.000000    6.082960
   735.000000    6.080638
   736.000000    6.072201
   737.000000    6.063159
   738.000000    6.067445
   739.000000    6.062795
   740.000000    6.068206
   741.000000    6.082836
   742.000000    6.070346
   743.000000    6.045041
   744.000000    6.032673
   745.000000    6.050533
   746.000000    6.051771
   747.000000    6.049865
   748.000000    6.047407
   749.000000    6.048634
   750.000000    6.034083
   751.000000    6.024550
   752.000000    6.022760
   753.000000    6.028353
   754.000000    6.029263
   755.000000    6.041754
   756.000000    6.080471
   757.000000    6.057044
   758.000000    6.050070
   759.000000    6.049663
   760.000000    6.049407
   761.000000    6.047358
   762.000000    6.043958
   763.000000    6.041962
   764.000000    6.049149
   765.000000    6.039164
   766.000000    6.030327
   767.000000    6.027333
   768.000000    6.024268
   769.000000    6.027649
   770.000000    6.034066
   771.000000    6.041182
   772.000000    6.024347
   773.000000    6.015678
   774.000000    6.015346
   775.000000    6.022850
   776.000000    6.019341
   777.000000    6.030494
   778.000000    6.053980
   779.000000    6.039984
   780.000000    6.022902
   781.000000    6.006649
   782.000000    5.993444
   783.000000    5.981830
   784.000000    5.995131
   785.000000    6.017445
   786.000000    6.024740
   787.000000    6.007750
   788.000000    6.005068
   789.000000    6.013055
   790.000000    5.995804
   791.000000    5.994511
   792.000000    5.996900
   793.000000    5.997901
   794.000000    5.987711
   795.000000    5.984797
   796.000000    5.980311
   797.000000    5.964380
   798.000000    5.981911
   799.000000    6.000016
   800.000000    6.013992
   801.000000    6.016376
   802.000000    6.008085
   803.000000    5.988920
   804.000000    5.963923
   805.000000    5.982649
   806.000000    5.996606
   807.000000    6.002219
   808.000000    5.995374
   809.000000    5.994670
   810.000000    5.989067
   811.000000    5.985297
   812.000000    5.997621
   813.000000    5.999800
   814.000000    6.015611
   815.000000    6.035177
   816.000000    5.991921
   817.000000    5.994384
   818.000000    6.002008
   819.000000    5.996141
   820.000000    5.997066
   821.000000    6.003300
   822.000000    6.002134
   823.000000    5.975323
   824.000000    5.960318
   825.000000    5.961927
   826.000000    5.974472
   827.000000    5.977943
   828.000000    5.990434
   829.000000    6.005718
   830.000000    6.017842
   831.000000    5.978249
   832.000000    5.952900
   833.000000    5.943589
   834.000000    5.954740
   835.000000    5.950962
   836.000000    5.963301
   837.000000    5.979845
   838.000000    5.969049
   839.000000    5.961204
   840.000000    5.954653
   841.000000    5.950263
   842.000000    5.956641
   843.000000    5.972784
   844.000000    5.974661
   845.000000    5.944882
   846.000000    5.953213
   847.000000    5.961041
   848.000000    5.964015
   849.000000    5.953506
   850.000000    5.936361
   851.000000    5.917591
   852.000000    5.901806
   853.000000    5.905084
   854.000000    5.913336
   855.000000    5.927590
   856.000000    5.948327
   857.000000    5.962420
   858.000000    5.955093
   859.000000    5.936464
   860.000000    5.916772
   861.000000    5.927279
   862.000000    5.915552
   863.000000    5.897424
   864.000000    5.936892
   865.000000    5.921975
   866.000000    5.901938
   867.000000    5.896072
   868.000000    5.961300
   869.000000    5.947024
   870.000000    5.927047
   871.000000    5.961709
   872.000000    5.962432
   873.000000    5.920957
   874.000000    5.870281
   875.000000    5.884508
   876.000000    5.892814
   877.000000    5.896308
   878.000000    5.895988
   879.000000    5.897772
   880.000000    5.897083
   881.000000    5.890412
   882.000000    5.875538
   883.000000    5.901422
   884.000000    5.922553
   885.000000    5.932349
   886.000000    5.918219
   887.000000    5.909167
   888.000000    5.894476
   889.000000    5.875171
   890.000000    5.863649
   891.000000    5.846369
   892.000000    5.853602
   893.000000    5.898197
   894.000000    5.891088
   895.000000    5.918029
   896.000000    5.930962
   897.000000    5.874508
   898.000000    5.938890
   899.000000    5.949688
   900.000000    5.922272
   901.000000    5.925256
   902.000000    5.889455
   903.000000    5.854351
   904.000000    5.833578
   905.000000    5.849380
   906.000000    5.875420
   907.000000    5.915934
   908.000000    5.975909
   909.000000    5.997104
   910.000000    5.948719
   911.000000    5.864231
   912.000000    5.809960
   913.000000    5.828068
   914.000000    5.842726
   915.000000    5.850865
   916.000000    5.911525
   917.000000    5.869437
   918.000000    5.808915
   919.000000    5.772564
   920.000000    5.831801
   921.000000    5.838377
   922.000000    5.839894
   923.000000    5.911738
   924.000000    5.901681
   925.000000    5.894407
   926.000000    5.889191
   927.000000    5.829708
   928.000000    5.896602
   929.000000    5.959171
   930.000000    5.945090
   931.000000    5.863474
   932.000000    5.729666
   933.000000    5.678773
   934.000000    5.846045
   935.000000    5.907513
   936.000000    5.904794
   937.000000    5.929134
   938.000000    6.205796
   939.000000    6.106392
   940.000000    5.943581
   941.000000    5.805066
   942.000000    5.810421
   943.000000    5.807895
   944.000000    5.869216
   945.000000    6.045161
   946.000000    5.906667
   947.000000    5.800192
   948.000000    5.788942
   949.000000    5.995401
   950.000000    5.940864
   951.000000    5.922074
   952.000000    5.956982
   953.000000    5.936890
   954.000000    5.942330
   955.000000    5.972518
   956.000000    6.018744
   957.000000    5.855440
   958.000000    5.805985
   959.000000    5.845966
   960.000000    5.963338
   961.000000    5.850422
   962.000000    5.713958
   963.000000    5.630743
   964.000000    5.790314
   965.000000    5.988224
   966.000000    6.072243
   967.000000    6.011528
   968.000000    5.981210
   969.000000    5.891402
   970.000000    5.810942
   971.000000    5.798446
   972.000000    5.697887
   973.000000    5.727424
   974.000000    5.827996
   975.000000    5.855696
   976.000000    5.919468
   977.000000    5.956941
   978.000000    5.957311
   979.000000    5.935942
   980.000000    5.938917
   981.000000    5.878823
   982.000000    5.703425
   983.000000    5.836081
   984.000000    5.850304
   985.000000    5.765640
   986.000000    5.594826
   987.000000    5.796774
   988.000000    5.989961
   989.000000    6.096289
   990.000000    5.986176
   991.000000    5.997938
   992.000000    6.006097
   993.000000    5.956061
   994.000000    5.808804
   995.000000    5.823598
   996.000000    5.913810
   997.000000    5.993415
   998.000000    5.975409
   999.000000    5.929326
  1000.000000    5.880684
  1001.000000    5.722410
  1002.000000    5.720561
  1003.000000    5.720541
  1004.000000    5.709421
  1005.000000    5.694072
  1006.000000    5.685666
  1007.000000    5.682851
  1008.000000    5.682174
  1009.000000    5.681217
  1010.000000    5.678891
  1011.000000    5.679607
  1012.000000    5.684668
  1013.000000    5.693617
  1014.000000    5.701572
  1015.000000    5.712332
  1016.000000    5.723927
  1017.000000    5.714182
  1018.000000    5.704386
  1019.000000    5.694578
  1020.000000    5.685555
  1021.000000    5.684881
  1022.000000    5.686372
  1023.000000    5.686990
  1024.000000    5.689557
  1025.000000    5.692004
  1026.000000    5.689816
  1027.000000    5.683845
  1028.000000    5.665531
  1029.000000    5.649907
  1030.000000    5.660442
  1031.000000    5.671411
  1032.000000    5.660305
  1033.000000    5.648830
  1034.000000    5.644969
  1035.000000    5.644199
  1036.000000    5.645684
  1037.000000    5.645644
  1038.000000    5.640666
  1039.000000    5.635466
  1040.000000    5.638778
  1041.000000    5.647232
  1042.000000    5.645707
  1043.000000    5.631228
  1044.000000    5.617458
  1045.000000    5.618333
  1046.000000    5.618816
  1047.000000    5.626814
  1048.000000    5.637033
  1049.000000    5.638769
  1050.000000    5.638521
  1051.000000    5.642812
  1052.000000    5.646319
  1053.000000    5.644169
  1054.000000    5.640403
  1055.000000    5.632021
  1056.000000    5.619753
  1057.000000    5.616484
  1058.000000    5.625152
  1059.000000    5.631524
  1060.000000    5.629582
  1061.000000    5.626140
  1062.000000    5.635478
  1063.000000    5.641468
  1064.000000    5.640992
  1065.000000    5.644267
  1066.000000    5.642575
  1067.000000    5.635009
  1068.000000    5.633846
  1069.000000    5.630790
  1070.000000    5.621875
  1071.000000    5.615605
  1072.000000    5.619064
  1073.000000    5.625111
  1074.000000    5.624821
  1075.000000    5.622957
  1076.000000    5.621513
  1077.000000    5.608850
  1078.000000    5.596272
  1079.000000    5.594313
  1080.000000    5.593655
  1081.000000    5.597382
  1082.000000    5.603502
  1083.000000    5.604587
  1084.000000    5.606316
  1085.000000    5.609939
  1086.000000    5.617337
  1087.000000    5.618258
  1088.000000    5.612885
  1089.000000    5.602326
  1090.000000    5.589755
  1091.000000    5.580430
  1092.000000    5.577400
  1093.000000    5.579604
  1094.000000    5.586141
  1095.000000    5.591073
  1096.000000    5.589991
  1097.000000    5.591004
  1098.000000    5.584942
  1099.000000    5.580098
  1100.000000    5.586998
  1101.000000    5.597658
  1102.000000    5.594716
  1103.000000    5.593832
  1104.000000    5.579360
  1105.000000    5.567706
  1106.000000    5.552236
  1107.000000    5.551540
  1108.000000    5.553006
  1109.000000    5.560817
  1110.000000    5.563501
  1111.000000    5.538502
  1112.000000    5.526973
  1113.000000    5.534287
  1114.000000    5.544776
  1115.000000    5.519506
  1116.000000    5.490701
  1117.000000    5.513143
  1118.000000    5.520292
  1119.000000    5.526237
  1120.000000    5.498332
  1121.000000    5.526814
  1122.000000    5.512686
  1123.000000    5.534568
  1124.000000    5.554485
  1125.000000    5.578966
  1126.000000    5.591590
  1127.000000    5.616331
  1128.000000    5.633151
  1129.000000    5.629988
  1130.000000    5.609396
  1131.000000    5.583786
  1132.000000    5.572185
  1133.000000    5.558735
  1134.000000    5.570136
  1135.000000    5.583262
  1136.000000    5.593343
  1137.000000    5.601126
  1138.000000    5.588268
  1139.000000    5.588649
  1140.000000    5.564359
  1141.000000    5.553795
  1142.000000    5.545741
  1143.000000    5.542519
  1144.000000    5.538780
  1145.000000    5.534346
  1146.000000    5.543905
  1147.000000    5.561015
  1148.000000    5.573675
  1149.000000    5.578595
  1150.000000    5.575990
  1151.000000    5.583202
  1152.000000    5.580096
  1153.000000    5.586819
  1154.000000    5.579116
  1155.000000    5.567993
  1156.000000    5.554666
  1157.000000    5.548714
  1158.000000    5.549185
  1159.000000    5.540725
  1160.000000    5.531127
  1161.000000    5.528416
  1162.000000    5.534985
  1163.000000    5.534917
  1164.000000    5.543355
  1165.000000    5.541450
  1166.000000    5.523593
  1167.000000    5.510011
  1168.000000    5.518343
  1169.000000    5.526467
  1170.000000    5.519701
  1171.000000    5.515727
  1172.000000    5.511881
  1173.000000    5.511864
  1174.000000    5.514343
  1175.000000    5.518294
  1176.000000    5.519725
  1177.000000    5.522688
  1178.000000    5.514997
  1179.000000    5.503944
  1180.000000    5.500862
  1181.000000    5.503686
  1182.000000    5.507809
  1183.000000    5.507874
  1184.000000    5.508819
  1185.000000    5.508237
  1186.000000    5.508245
  1187.000000    5.509040
  1188.000000    5.509076
  1189.000000    5.504500
  1190.000000    5.500025
  1191.000000    5.496885
  1192.000000    5.493567
  1193.000000    5.494756
  1194.000000    5.498451
  1195.000000    5.490897
  1196.000000    5.482749
  1197.000000    5.476319
  1198.000000    5.471202
  1199.000000    5.475138
  1200.000000    5.484084
  1201.000000    5.487176
  1202.000000    5.483375
  1203.000000    5.481014
  1204.000000    5.479202
  1205.000000    5.475110
  1206.000000    5.463040
  1207.000000    5.456101
  1208.000000    5.464613
  1209.000000    5.472422
  1210.000000    5.475732
  1211.000000    5.479040
  1212.000000    5.482110
  1213.000000    5.485006
  1214.000000    5.474991
  1215.000000    5.463907
  1216.000000    5.455084
  1217.000000    5.447326
  1218.000000    5.450809
  1219.000000    5.458699
  1220.000000    5.458922
  1221.000000    5.454780
  1222.000000    5.453902
  1223.000000    5.456020
  1224.000000    5.454966
  1225.000000    5.450418
  1226.000000    5.448601
  1227.000000    5.451427
  1228.000000    5.452761
  1229.000000    5.450662
  1230.000000    5.448141
  1231.000000    5.443485
  1232.000000    5.438868
  1233.000000    5.437002
  1234.000000    5.435130
  1235.000000    5.428615
  1236.000000    5.422063
  1237.000000    5.422843
  1238.000000    5.424549
  1239.000000    5.426799
  1240.000000    5.429429
  1241.000000    5.426441
  1242.000000    5.421629
  1243.000000    5.418921
  1244.000000    5.416955
  1245.000000    5.412913
  1246.000000    5.407409
  1247.000000    5.405458
  1248.000000    5.407829
  1249.000000    5.410301
  1250.000000    5.413106
  1251.000000    5.412037
  1252.000000    5.401369
  1253.000000    5.391900
  1254.000000    5.388328
  1255.000000    5.384431
  1256.000000    5.378531
  1257.000000    5.372585
  1258.000000    5.369871
  1259.000000    5.367099
  1260.000000    5.368202
  1261.000000    5.369589
  1262.000000    5.367136
  1263.000000    5.363972
  1264.000000    5.366041
  1265.000000    5.369800
  1266.000000    5.378338
  1267.000000    5.389321
  1268.000000    5.393011
  1269.000000    5.392111
  1270.000000    5.389165
  1271.000000    5.384815
  1272.000000    5.383016
  1273.000000    5.384281
  1274.000000    5.384054
  1275.000000    5.381086
  1276.000000    5.378391
  1277.000000    5.376019
  1278.000000    5.374526
  1279.000000    5.375457
  1280.000000    5.375480
  1281.000000    5.366804
  1282.000000    5.358703
  1283.000000    5.372270
  1284.000000    5.385885
  1285.000000    5.380345
  1286.000000    5.373981
  1287.000000    5.358184
  1288.000000    5.340647
  1289.000000    5.337729
  1290.000000    5.338761
  1291.000000    5.336368
  1292.000000    5.332213
  1293.000000    5.329008
  1294.000000    5.325951
  1295.000000    5.326821
  1296.000000    5.330344
  1297.000000    5.335344
  1298.000000    5.342009
  1299.000000    5.342398
  1300.000000    5.333900
  1301.000000    5.324058
  1302.000000    5.311747
  1303.000000    5.303094
  1304.000000    5.305102
  1305.000000    5.306725
  1306.000000    5.307733
  1307.000000    5.309146
  1308.000000    5.315964
  1309.000000    5.322509
  1310.000000    5.315916
  1311.000000    5.308891
  1312.000000    5.312460
  1313.000000    5.316552
  1314.000000    5.318304
  1315.000000    5.319897
  1316.000000    5.323523
  1317.000000    5.328149
  1318.000000    5.327490
  1319.000000    5.324907
  1320.000000    5.315654
  1321.000000    5.301886
  1322.000000    5.286143
  1323.000000    5.267005
  1324.000000    5.264229
  1325.000000    5.271650
  1326.000000    5.276051
  1327.000000    5.276152
  1328.000000    5.278756
  1329.000000    5.285520
  1330.000000    5.287112
  1331.000000    5.283499
  1332.000000    5.278565
  1333.000000    5.277684
  1334.000000    5.273251
  1335.000000    5.258879
  1336.000000    5.248212
  1337.000000    5.246254
  1338.000000    5.246498
  1339.000000    5.218639
  1340.000000    5.196521
  1341.000000    5.174426
  1342.000000    5.154301
  1343.000000    5.165149
  1344.000000    5.177623
  1345.000000    5.166624
  1346.000000    5.142682
  1347.000000    5.102597
  1348.000000    5.047563
  1349.000000    4.987284
  1350.000000    4.911963
  1351.000000    4.852559
  1352.000000    4.833479
  1353.000000    4.756309
  1354.000000    4.661055
  1355.000000    4.502544
  1356.000000    4.401895
  1357.000000    4.339372
  1358.000000    4.551419
  1359.000000    4.950884
  1360.000000    5.857536
  1361.000000    7.014281
  1362.000000    8.383128
  1363.000000    9.597556
  1364.000000    9.818639
  1365.000000    9.828329
  1366.000000    9.361549
  1367.000000    9.010055
  1368.000000    9.374200
  1369.000000    9.448469
  1370.000000    8.379012
  1371.000000    7.412659
  1372.000000    6.854270
  1373.000000    6.407118
  1374.000000    5.316587
  1375.000000    4.338051
  1376.000000    4.955531
  1377.000000    5.593405
  1378.000000    6.398639
  1379.000000    7.271942
  1380.000000    7.952164
  1381.000000    8.599164
  1382.000000    8.033847
  1383.000000    7.432153
  1384.000000    7.645705
  1385.000000    8.024970
  1386.000000    7.355350
  1387.000000    6.453420
  1388.000000    6.048841
  1389.000000    5.874308
  1390.000000    5.673352
  1391.000000    5.482302
  1392.000000    5.106783
  1393.000000    4.635404
  1394.000000    4.596019
  1395.000000    4.899720
  1396.000000    4.976652
  1397.000000    4.821317
  1398.000000    4.703913
  1399.000000    4.648974
  1400.000000    4.668499
  1401.000000    4.803019
  1402.000000    4.910477
  1403.000000    4.986944
  1404.000000    5.062550
  1405.000000    5.160316
  1406.000000    5.271924
  1407.000000    5.501226
  1408.000000    5.632372
  1409.000000    5.577589
  1410.000000    5.524076
  1411.000000    5.426613
  1412.000000    5.336844
  1413.000000    5.261834
  1414.000000    5.204893
  1415.000000    5.231494
  1416.000000    5.247088
  1417.000000    5.223546
  1418.000000    5.205008
  1419.000000    5.274213
  1420.000000    5.336865
  1421.000000    5.301515
  1422.000000    5.264621
  1423.000000    5.256686
  1424.000000    5.252821
  1425.000000    5.235781
  1426.000000    5.211765
  1427.000000    5.214136
  1428.000000    5.221646
  1429.000000    5.221943
  1430.000000    5.214161
  1431.000000    5.221943
  1432.000000    5.231489
  1433.000000    5.228426
  1434.000000    5.218915
  1435.000000    5.203042
  1436.000000    5.184777
  1437.000000    5.180338
  1438.000000    5.189517
  1439.000000    5.172383
  1440.000000    5.141191
  1441.000000    5.157196
  1442.000000    5.218266
  1443.000000    5.261913
  1444.000000    5.291603
  1445.000000    5.313455
  1446.000000    5.331464
  1447.000000    5.338772
  1448.000000    5.338854
  1449.000000    5.325956
  1450.000000    5.299803
  1451.000000    5.284773
  1452.000000    5.295192
  1453.000000    5.297784
  1454.000000    5.279876
  1455.000000    5.264476
  1456.000000    5.242834
  1457.000000    5.228842
  1458.000000    5.216594
  1459.000000    5.207738
  1460.000000    5.183137
  1461.000000    5.164101
  1462.000000    5.150341
  1463.000000    5.142153
  1464.000000    5.154920
  1465.000000    5.164537
  1466.000000    5.156222
  1467.000000    5.147170
  1468.000000    5.172400
  1469.000000    5.193012
  1470.000000    5.186267
  1471.000000    5.174862
  1472.000000    5.172363
  1473.000000    5.168041
  1474.000000    5.203188
  1475.000000    5.238400
  1476.000000    5.262548
  1477.000000    5.284967
  1478.000000    5.269788
  1479.000000    5.252062
  1480.000000    5.253563
  1481.000000    5.258384
  1482.000000    5.258462
  1483.000000    5.258376
  1484.000000    5.267266
  1485.000000    5.278354
  1486.000000    5.285835
  1487.000000    5.293248
  1488.000000    5.289278
  1489.000000    5.284254
  1490.000000    5.274930
  1491.000000    5.264666
  1492.000000    5.252837
  1493.000000    5.240437
  1494.000000    5.243041
  1495.000000    5.249587
  1496.000000    5.249892
  1497.000000    5.246944
  1498.000000    5.250369
  1499.000000    5.255598
  1500.000000    5.254947
  1501.000000    5.250311
  1502.000000    5.240637
  1503.000000    5.228329
  1504.000000    5.228087
  1505.000000    5.235655
  1506.000000    5.245197
  1507.000000    5.256088
  1508.000000    5.257275
  1509.000000    5.251565
  1510.000000    5.244201
  1511.000000    5.235527
  1512.000000    5.229154
  1513.000000    5.224500
  1514.000000    5.222934
  1515.000000    5.223661
  1516.000000    5.224606
  1517.000000    5.225638
  1518.000000    5.225412
  1519.000000    5.223947
  1520.000000    5.225604
  1521.000000    5.230516
  1522.000000    5.233270
  1523.000000    5.233527
  1524.000000    5.231956
  1525.000000    5.228233
  1526.000000    5.226720
  1527.000000    5.227950
  1528.000000    5.225946
  1529.000000    5.219657
  1530.000000    5.218892
  1531.000000    5.225803
  1532.000000    5.233490
  1533.000000    5.242326
  1534.000000    5.247334
  1535.000000    5.246574
  1536.000000    5.246184
  1537.000000    5.246316
  1538.000000    5.249233
  1539.000000    5.256885
  1540.000000    5.261573
  1541.000000    5.261031
  1542.000000    5.256607
  1543.000000    5.245270
  1544.000000    5.237530
  1545.000000    5.236650
  1546.000000    5.234561
  1547.000000    5.230475
  1548.000000    5.231870
  1549.000000    5.244115
  1550.000000    5.248891
  1551.000000    5.238670
  1552.000000    5.232547
  1553.000000    5.234968
  1554.000000    5.241875
  1555.000000    5.257996
  1556.000000    5.266816
  1557.000000    5.260350
  1558.000000    5.253662
  1559.000000    5.246228
  1560.000000    5.241890
  1561.000000    5.244646
  1562.000000    5.247370
  1563.000000    5.250877
  1564.000000    5.250546
  1565.000000    5.242831
  1566.000000    5.237054
  1567.000000    5.236158
  1568.000000    5.236303
  1569.000000    5.239595
  1570.000000    5.247406
  1571.000000    5.264237
  1572.000000    5.277146
  1573.000000    5.279390
  1574.000000    5.281631
  1575.000000    5.281222
  1576.000000    5.280985
  1577.000000    5.279030
  1578.000000    5.277138
  1579.000000    5.274840
  1580.000000    5.269664
  1581.000000    5.257865
  1582.000000    5.247931
  1583.000000    5.242203
  1584.000000    5.238594
  1585.000000    5.240725
  1586.000000    5.238715
  1587.000000    5.229555
  1588.000000    5.224356
  1589.000000    5.225175
  1590.000000    5.227330
  1591.000000    5.232504
  1592.000000    5.240684
  1593.000000    5.255811
  1594.000000    5.263318
  1595.000000    5.259064
  1596.000000    5.258151
  1597.000000    5.263892
  1598.000000    5.265444
  1599.000000    5.260848
  1600.000000    5.260251
  1601.000000    5.265876
  1602.000000    5.267949
  1603.000000    5.261431
  1604.000000    5.260110
  1605.000000    5.266059
  1606.000000    5.265471
  1607.000000    5.254828
  1608.000000    5.247969
  1609.000000    5.245684
  1610.000000    5.247839
  1611.000000    5.252754
  1612.000000    5.254264
  1613.000000    5.253905
  1614.000000    5.248583
  1615.000000    5.237189
  1616.000000    5.230266
  1617.000000    5.226555
  1618.000000    5.223872
  1619.000000    5.223134
  1620.000000    5.222309
  1621.000000    5.221503
  1622.000000    5.218306
  1623.000000    5.213106
  1624.000000    5.221662
  1625.000000    5.243615
  1626.000000    5.258952
  1627.000000    5.268504
  1628.000000    5.260007
  1629.000000    5.239785
  1630.000000    5.219242
  1631.000000    5.202664
  1632.000000    5.202447
  1633.000000    5.211016
  1634.000000    5.223995
  1635.000000    5.241668
  1636.000000    5.246363
  1637.000000    5.243079
  1638.000000    5.235022
  1639.000000    5.223610
  1640.000000    5.227885
  1641.000000    5.236503
  1642.000000    5.240352
  1643.000000    5.242445
  1644.000000    5.232539
  1645.000000    5.218109
  1646.000000    5.214248
  1647.000000    5.212743
  1648.000000    5.226500
  1649.000000    5.243567
  1650.000000    5.241663
  1651.000000    5.234842
  1652.000000    5.236070
  1653.000000    5.239340
  1654.000000    5.236349
  1655.000000    5.232742
  1656.000000    5.233050
  1657.000000    5.233502
  1658.000000    5.235941
  1659.000000    5.239989
  1660.000000    5.231013
  1661.000000    5.223469
  1662.000000    5.221913
  1663.000000    5.221665
  1664.000000    5.225015
  1665.000000    5.227759
  1666.000000    5.235274
  1667.000000    5.240923
  1668.000000    5.233094
  1669.000000    5.225134
  1670.000000    5.225656
  1671.000000    5.227072
  1672.000000    5.230309
  1673.000000    5.232506
  1674.000000    5.232313
  1675.000000    5.233970
  1676.000000    5.237986
  1677.000000    5.237097
  1678.000000    5.222860
  1679.000000    5.218182
  1680.000000    5.235248
  1681.000000    5.248750
  1682.000000    5.253708
  1683.000000    5.255084
  1684.000000    5.250101
  1685.000000    5.237074
  1686.000000    5.212207
  1687.000000    5.203722
  1688.000000    5.216639
  1689.000000    5.226033
  1690.000000    5.232580
  1691.000000    5.237318
  1692.000000    5.241773
  1693.000000    5.234122
  1694.000000    5.216085
  1695.000000    5.205851
  1696.000000    5.200394
  1697.000000    5.207598
  1698.000000    5.222690
  1699.000000    5.222722
  1700.000000    5.215574
  1701.000000    5.205365
  1702.000000    5.195887
  1703.000000    5.195337
  1704.000000    5.198604
  1705.000000    5.202757
  1706.000000    5.206683
  1707.000000    5.205210
  1708.000000    5.201307
  1709.000000    5.191650
  1710.000000    5.181022
  1711.000000    5.170284
  1712.000000    5.158663
  1713.000000    5.152791
  1714.000000    5.150622
  1715.000000    5.174318
  1716.000000    5.192411
  1717.000000    5.179301
  1718.000000    5.172424
  1719.000000    5.190591
  1720.000000    5.204996
  1721.000000    5.199674
  1722.000000    5.189899
  1723.000000    5.166673
  1724.000000    5.147031
  1725.000000    5.138701
  1726.000000    5.131781
  1727.000000    5.122914
  1728.000000    5.116799
  1729.000000    5.121600
  1730.000000    5.120905
  1731.000000    5.114333
  1732.000000    5.106879
  1733.000000    5.096267
  1734.000000    5.093837
  1735.000000    5.094564
  1736.000000    5.104397
  1737.000000    5.115818
  1738.000000    5.131762
  1739.000000    5.147854
  1740.000000    5.146716
  1741.000000    5.138791
  1742.000000    5.132008
  1743.000000    5.127474
  1744.000000    5.119424
  1745.000000    5.109197
  1746.000000    5.095658
  1747.000000    5.082250
  1748.000000    5.106959
  1749.000000    5.126323
  1750.000000    5.115247
  1751.000000    5.107395
  1752.000000    5.094731
  1753.000000    5.083582
  1754.000000    5.087766
  1755.000000    5.091785
  1756.000000    5.091180
  1757.000000    5.093327
  1758.000000    5.094054
  1759.000000    5.089811
  1760.000000    5.085437
  1761.000000    5.083166
  1762.000000    5.082223
  1763.000000    5.092898
  1764.000000    5.103720
  1765.000000    5.099293
  1766.000000    5.091570
  1767.000000    5.085252
  1768.000000    5.080941
  1769.000000    5.064364
  1770.000000    5.053879
  1771.000000    5.050477
  1772.000000    5.049701
  1773.000000    5.053344
  1774.000000    5.066008
  1775.000000    5.066117
  1776.000000    5.064259
  1777.000000    5.065580
  1778.000000    5.065410
  1779.000000    5.085827
  1780.000000    5.089793
  1781.000000    5.069389
  1782.000000    5.055977
  1783.000000    5.055754
  1784.000000    5.049308
  1785.000000    5.030731
  1786.000000    5.024741
  1787.000000    5.050871
  1788.000000    5.053621
  1789.000000    5.035276
  1790.000000    5.051159
  1791.000000    5.096396
  1792.000000    5.088402
  1793.000000    5.049881
  1794.000000    4.986042
  1795.000000    4.907798
  1796.000000    4.945430
  1797.000000    5.055978
  1798.000000    5.056286
  1799.000000    4.972419
  1800.000000    4.958904
  1801.000000    4.941311
  1802.000000    4.988484
  1803.000000    5.007180
  1804.000000    4.992073
  1805.000000    4.975542
  1806.000000    5.033973
  1807.000000    5.049084
  1808.000000    4.989088
  1809.000000    4.910793
  1810.000000    4.807021
  1811.000000    4.754443
  1812.000000    4.879883
  1813.000000    5.007325
  1814.000000    5.003937
  1815.000000    5.108600
  1816.000000    5.392518
  1817.000000    5.400454
  1818.000000    5.106778
  1819.000000    5.079201
  1820.000000    5.087270
  1821.000000    5.250919
  1822.000000    5.468969
  1823.000000    5.481158
  1824.000000    5.517746
  1825.000000    5.586264
  1826.000000    5.727997
  1827.000000    6.066911
  1828.000000    6.542353
  1829.000000    7.533343
  1830.000000    8.673033
  1831.000000   48.156394
  1832.000000   69.120799
  1833.000000  100.000000
  1834.000000  100.000000
  1835.000000  100.000000
  1836.000000  100.000000
  1837.000000  100.000000
  1838.000000    0.000000
  1839.000000    0.000000
  1840.000000  100.000000
  1841.000000  100.000000
  1842.000000  100.000000
  1843.000000  100.000000
  1844.000000  100.000000
  1845.000000  100.000000
  1846.000000  100.000000
  1847.000000  100.000000
  1848.000000  100.000000
  1849.000000  100.000000
  1850.000000  100.000000
  1851.000000  100.000000
  1852.000000  100.000000
  1853.000000  100.000000
  1854.000000  100.000000
  1855.000000  100.000000
  1856.000000   86.191592
  1857.000000   68.932268
  1858.000000   65.661214
  1859.000000   72.271017
  1860.000000   77.271419
  1861.000000   76.271501
  1862.000000   76.028907
  1863.000000   74.746965
  1864.000000   70.992736
  1865.000000   80.907145
  1866.000000  100.000000
  1867.000000  100.000000
  1868.000000  100.000000
  1869.000000  100.000000
  1870.000000  100.000000
  1871.000000   79.676943
  1872.000000   75.827855
  1873.000000   75.915526
  1874.000000   57.256670
  1875.000000   38.164866
  1876.000000   33.669233
  1877.000000   33.925795
  1878.000000   31.384668
  1879.000000   29.381966
  1880.000000   27.534853
  1881.000000   23.240081
  1882.000000   19.920407
  1883.000000   17.905002
  1884.000000   16.028351
  1885.000000   16.221179
  1886.000000   16.893702
  1887.000000   19.775679
  1888.000000   23.996406
  1889.000000   26.092031
  1890.000000   25.439878
  1891.000000   25.432900
  1892.000000   26.649589
  1893.000000   27.929903
  1894.000000   30.487390
  1895.000000   34.122949
  1896.000000   38.359293
  1897.000000   45.277421
  1898.000000   50.868589
  1899.000000   60.764523
  1900.000000   83.507203
  1901.000000   99.746787
  1902.000000  100.000000
  1903.000000   98.243392
  1904.000000   84.859831
  1905.000000   84.040494
  1906.000000   79.820433
  1907.000000   55.794896
  1908.000000   42.203956
  1909.000000   33.013129
  1910.000000   26.794584
  1911.000000   21.577716
  1912.000000   15.806630
  1913.000000   12.395556
  1914.000000   10.317232
  1915.000000    8.822350
  1916.000000    9.377823
  1917.000000    9.928252
  1918.000000    9.223313
  1919.000000    8.359581
  1920.000000    7.359591
  1921.000000    6.206414
  1922.000000    5.296566
  1923.000000    4.742580
  1924.000000    4.471883
  1925.000000    5.158789
  1926.000000    5.801629
  1927.000000    6.287032
  1928.000000    6.681762
  1929.000000    6.473806
  1930.000000    6.142375
  1931.000000    5.730332
  1932.000000    5.261073
  1933.000000    4.941885
  1934.000000    4.830652
  1935.000000    4.778605
  1936.000000    4.903042
  1937.000000    5.008325
  1938.000000    4.704409
  1939.000000    4.423172
  1940.000000    4.443877
  1941.000000    4.535799
  1942.000000    4.447867
  1943.000000    4.265122
  1944.000000    4.158639
  1945.000000    4.155700
  1946.000000    4.215007
  1947.000000    4.499917
  1948.000000    4.765094
  1949.000000    4.753161
  1950.000000    4.740368
  1951.000000    4.710469
  1952.000000    4.683341
  1953.000000    4.682834
  1954.000000    4.687527
  1955.000000    4.659227
  1956.000000    4.592287
  1957.000000    4.593307
  1958.000000    4.726835
  1959.000000    4.830250
  1960.000000    4.773479
  1961.000000    4.724249
  1962.000000    4.739938
  1963.000000    4.760490
  1964.000000    4.732299
  1965.000000    4.687849
  1966.000000    4.599562
  1967.000000    4.475039
  1968.000000    4.358974
  1969.000000    4.248309
  1970.000000    4.164728
  1971.000000    4.206371
  1972.000000    4.245559
  1973.000000    4.301451
  1974.000000    4.355651
  1975.000000    4.369066
  1976.000000    4.371172
  1977.000000    4.320570
  1978.000000    4.235652
  1979.000000    4.180706
  1980.000000    4.166227
  1981.000000    4.169496
  1982.000000    4.230896
  1983.000000    4.288108
  1984.000000    4.273911
  1985.000000    4.259722
  1986.000000    4.234857
  1987.000000    4.207734
  1988.000000    4.219881
  1989.000000    4.249431
  1990.000000    4.236549
  1991.000000    4.177191
  1992.000000    4.109909
  1993.000000    4.028302
  1994.000000    3.952460
  1995.000000    3.951597
  1996.000000    3.951356
  1997.000000    4.022376
  1998.000000    4.104923
  1999.000000    4.123070
  2000.000000    4.130762
  2001.000000    4.141730
  2002.000000    4.159647
  2003.000000    4.204225
  2004.000000    4.288685
  2005.000000    4.361911
  2006.000000    4.417316
  2007.000000    4.472765
  2008.000000    4.532111
  2009.000000    4.587424
  2010.000000    4.639187
  2011.000000    4.689272
  2012.000000    4.601879
  2013.000000    4.491837
  2014.000000    4.462795
  2015.000000    4.480955
  2016.000000    4.518377
  2017.000000    4.576019
  2018.000000    4.599018
  2019.000000    4.560818
  2020.000000    4.520647
  2021.000000    4.457038
  2022.000000    4.399030
  2023.000000    4.421649
  2024.000000    4.445292
  2025.000000    4.429727
  2026.000000    4.402093
  2027.000000    4.382628
  2028.000000    4.366529
  2029.000000    4.367064
  2030.000000    4.379521
  2031.000000    4.364636
  2032.000000    4.285615
  2033.000000    4.216185
  2034.000000    4.191821
  2035.000000    4.170703
  2036.000000    4.209630
  2037.000000    4.249139
  2038.000000    4.272670
  2039.000000    4.294094
  2040.000000    4.290918
  2041.000000    4.276341
  2042.000000    4.275728
  2043.000000    4.278396
  2044.000000    4.278834
  2045.000000    4.270052
  2046.000000    4.264801
  2047.000000    4.282835
  2048.000000    4.300058
  2049.000000    4.297997
  2050.000000    4.294659
  2051.000000    4.328351
  2052.000000    4.368322
  2053.000000    4.366487
  2054.000000    4.358069
  2055.000000    4.334065
  2056.000000    4.297806
  2057.000000    4.281911
  2058.000000    4.292177
  2059.000000    4.301181
  2060.000000    4.315324
  2061.000000    4.324595
  2062.000000    4.320219
  2063.000000    4.317782
  2064.000000    4.327223
  2065.000000    4.335770
  2066.000000    4.274658
  2067.000000    4.205393
  2068.000000    4.194125
  2069.000000    4.207586
  2070.000000    4.248204
  2071.000000    4.314915
  2072.000000    4.381263
  2073.000000    4.443693
  2074.000000    4.492177
  2075.000000    4.497693
  2076.000000    4.505233
  2077.000000    4.520904
  2078.000000    4.536164
  2079.000000    4.462029
  2080.000000    4.388148
  2081.000000    4.362549
  2082.000000    4.344268
  2083.000000    4.356788
  2084.000000    4.376433
  2085.000000    4.392390
  2086.000000    4.411078
  2087.000000    4.401912
  2088.000000    4.353046
  2089.000000    4.303546
  2090.000000    4.256150
  2091.000000    4.203143
  2092.000000    4.142700
  2093.000000    4.091086
  2094.000000    4.138824
  2095.000000    4.186302
  2096.000000    4.242920
  2097.000000    4.301529
  2098.000000    4.291817
  2099.000000    4.258146
  2100.000000    4.314932
  2101.000000    4.433270
  2102.000000    4.494587
  2103.000000    4.494600
  2104.000000    4.476490
  2105.000000    4.422053
  2106.000000    4.380239
  2107.000000    4.370529
  2108.000000    4.360087
  2109.000000    4.327662
  2110.000000    4.292656
  2111.000000    4.249786
  2112.000000    4.205894
  2113.000000    4.213784
  2114.000000    4.235256
  2115.000000    4.268446
  2116.000000    4.304843
  2117.000000    4.321563
  2118.000000    4.320550
  2119.000000    4.336308
  2120.000000    4.369846
  2121.000000    4.391550
  2122.000000    4.398423
  2123.000000    4.404832
  2124.000000    4.413640
  2125.000000    4.422966
  2126.000000    4.424708
  2127.000000    4.427685
  2128.000000    4.438313
  2129.000000    4.448722
  2130.000000    4.462747
  2131.000000    4.478488
  2132.000000    4.501448
  2133.000000    4.528831
  2134.000000    4.539335
  2135.000000    4.538739
  2136.000000    4.504397
  2137.000000    4.418906
  2138.000000    4.364728
  2139.000000    4.366078
  2140.000000    4.354328
  2141.000000    4.322038
  2142.000000    4.285043
  2143.000000    4.219027
  2144.000000    4.157517
  2145.000000    4.143827
  2146.000000    4.129630
  2147.000000    4.154985
  2148.000000    4.186994
  2149.000000    4.220271
  2150.000000    4.252388
  2151.000000    4.318159
  2152.000000    4.404643
  2153.000000    4.424510
  2154.000000    4.382678
  2155.000000    4.333829
  2156.000000    4.291524
  2157.000000    4.269705
  2158.000000    4.273900
  2159.000000    4.274589
  2160.000000    4.265415
  2161.000000    4.247428
  2162.000000    4.224875
  2163.000000    4.204591
  2164.000000    4.186207
  2165.000000    4.170825
  2166.000000    4.204125
  2167.000000    4.241534
  2168.000000    4.268362
  2169.000000    4.294039
  2170.000000    4.302427
  2171.000000    4.306583
  2172.000000    4.326100
  2173.000000    4.360968
  2174.000000    4.378850
  2175.000000    4.373186
  2176.000000    4.357311
  2177.000000    4.321117
  2178.000000    4.290738
  2179.000000    4.254570
  2180.000000    4.218060
  2181.000000    4.193098
  2182.000000    4.163102
  2183.000000    4.113668
  2184.000000    4.066196
  2185.000000    4.105583
  2186.000000    4.151206
  2187.000000    4.214732
  2188.000000    4.279904
  2189.000000    4.256204
  2190.000000    4.205051
  2191.000000    4.156416
  2192.000000    4.114023
  2193.000000    4.130404
  2194.000000    4.185610
  2195.000000    4.233607
  2196.000000    4.269078
  2197.000000    4.278397
  2198.000000    4.245440
  2199.000000    4.227871
  2200.000000    4.261730
  2201.000000    4.288692
  2202.000000    4.291287
  2203.000000    4.285479
  2204.000000    4.274396
  2205.000000    4.270591
  2206.000000    4.259957
  2207.000000    4.245910
  2208.000000    4.235050
  2209.000000    4.226619
  2210.000000    4.212746
  2211.000000    4.197446
  2212.000000    4.192084
  2213.000000    4.185056
  2214.000000    4.119789
  2215.000000    4.017575
  2216.000000    3.972516
  2217.000000    3.972011
  2218.000000    3.979222
  2219.000000    4.005354
  2220.000000    4.042068
  2221.000000    4.108693
  2222.000000    4.158790
  2223.000000    4.154646
  2224.000000    4.145064
  2225.000000    4.083805
  2226.000000    4.017759
  2227.000000    3.957834
  2228.000000    3.897325
  2229.000000    3.922966
  2230.000000    3.951405
  2231.000000    4.137835
  2232.000000    4.331718
  2233.000000    4.321803
  2234.000000    4.282845
  2235.000000    4.328260
  2236.000000    4.399383
  2237.000000    4.391533
  2238.000000    4.351937
  2239.000000    4.319393
  2240.000000    4.288319
  2241.000000    4.261302
  2242.000000    4.238720
  2243.000000    4.191412
  2244.000000    4.115454
  2245.000000    4.078197
  2246.000000    4.089407
  2247.000000    4.111479
  2248.000000    4.154859
  2249.000000    4.206979
  2250.000000    4.293060
  2251.000000    4.364644
  2252.000000    4.353122
  2253.000000    4.329213
  2254.000000    4.290011
  2255.000000    4.255582
  2256.000000    4.226119
  2257.000000    4.197167
  2258.000000    4.213258
  2259.000000    4.231198
  2260.000000    4.188550
  2261.000000    4.138389
  2262.000000    4.159361
  2263.000000    4.199492
  2264.000000    4.126209
  2265.000000    4.021015
  2266.000000    3.958142
  2267.000000    3.912744
  2268.000000    3.959666
  2269.000000    4.050129
  2270.000000    4.081850
  2271.000000    4.075460
  2272.000000    4.078349
  2273.000000    4.080922
  2274.000000    4.080545
  2275.000000    4.086491
  2276.000000    4.048498
  2277.000000    3.941278
  2278.000000    3.846192
  2279.000000    3.779249
  2280.000000    3.751590
  2281.000000    3.825717
  2282.000000    3.892544
  2283.000000    3.935300
  2284.000000    3.966330
  2285.000000    3.931277
  2286.000000    3.898799
  2287.000000    3.870801
  2288.000000    3.842703
  2289.000000    3.877251
  2290.000000    3.912897
  2291.000000    3.920952
  2292.000000    3.928393
  2293.000000    3.929477
  2294.000000    3.929765
  2295.000000    3.994758
  2296.000000    4.070845
  2297.000000    4.084893
  2298.000000    4.084828
  2299.000000    4.124127
  2300.000000    4.174449
  2301.000000    4.200992
  2302.000000    4.220234
  2303.000000    4.182819
  2304.000000    4.115196
  2305.000000    4.079204
  2306.000000    4.064762
  2307.000000    4.019407
  2308.000000    3.946400
  2309.000000    3.948343
  2310.000000    4.023330
  2311.000000    4.102613
  2312.000000    4.186778
  2313.000000    4.228927
  2314.000000    4.209934
  2315.000000    4.153939
  2316.000000    4.035415
  2317.000000    3.959354
  2318.000000    3.974917
  2319.000000    4.011846
  2320.000000    4.101750
  2321.000000    4.185642
  2322.000000    4.252234
  2323.000000    4.322516
  2324.000000    4.408951
  2325.000000    4.465678
  2326.000000    4.353135
  2327.000000    4.244792
  2328.000000    4.174229
  2329.000000    4.112514
  2330.000000    4.195693
  2331.000000    4.273201
  2332.000000    4.091813
  2333.000000    3.904733
  2334.000000    3.867299
  2335.000000    3.830183
  2336.000000    3.898607
  2337.000000    3.975474
  2338.000000    4.007326
  2339.000000    4.035715
  2340.000000    4.130823
  2341.000000    4.238893
  2342.000000    4.170275
  2343.000000    4.063935
  2344.000000    4.023412
  2345.000000    3.996284
  2346.000000    4.063776
  2347.000000    4.161825
  2348.000000    4.289562
  2349.000000    4.421259
  2350.000000    4.492442
  2351.000000    4.541376
  2352.000000    4.511034
  2353.000000    4.449634
  2354.000000    4.373274
  2355.000000    4.274041
  2356.000000    4.274338
  2357.000000    4.347337
  2358.000000    4.355806
  2359.000000    4.329124
  2360.000000    4.178426
  2361.000000    3.920558
  2362.000000    3.840850
  2363.000000    3.916150
  2364.000000    3.896925
  2365.000000    3.799702
  2366.000000    3.764250
  2367.000000    3.791304
  2368.000000    3.689984
  2369.000000    3.442034
  2370.000000    3.298030
  2371.000000    3.281537
  2372.000000    3.456294
  2373.000000    3.893542
  2374.000000    4.324877
  2375.000000    4.702069
  2376.000000    4.898657
  2377.000000    4.856566
  2378.000000    4.851294
  2379.000000    4.884997
  2380.000000    4.763276
  2381.000000    4.283938
  2382.000000    3.981990
  2383.000000    4.073542
  2384.000000    4.092680
  2385.000000    3.966296
  2386.000000    3.913028
  2387.000000    4.049950
  2388.000000    4.182141
  2389.000000    4.280608
  2390.000000    4.283654
  2391.000000    4.087466
  2392.000000    3.939773
  2393.000000    3.872981
  2394.000000    3.831916
  2395.000000    3.917753
  2396.000000    4.049745
  2397.000000    4.225311
  2398.000000    4.318327
  2399.000000    4.227605
  2400.000000    4.182108
  2401.000000    4.344548
  2402.000000    4.522984
  2403.000000    4.609958
  2404.000000    4.625578
  2405.000000    4.442502
  2406.000000    4.363699
  2407.000000    4.745561
  2408.000000    5.069192
  2409.000000    5.052085
  2410.000000    4.987990
  2411.000000    4.719149
  2412.000000    4.538928
  2413.000000    4.647503
  2414.000000    4.710685
  2415.000000    4.710392
  2416.000000    4.667425
  2417.000000    4.503478
  2418.000000    4.382190
  2419.000000    4.417864
  2420.000000    4.471472
  2421.000000    4.646590
  2422.000000    4.724955
  2423.000000    4.297351
  2424.000000    3.929930
  2425.000000    4.010311
  2426.000000    4.096437
  2427.000000    4.077690
  2428.000000    4.109785
  2429.000000    4.326256
  2430.000000    4.557837
  2431.000000    4.677926
  2432.000000    4.760099
  2433.000000    4.795572
  2434.000000    4.806815
  2435.000000    4.666945
  2436.000000    4.479883
  2437.000000    4.172472
  2438.000000    3.947277
  2439.000000    4.124489
  2440.000000    4.290244
  2441.000000    4.298620
  2442.000000    4.298967
  2443.000000    4.397605
  2444.000000    4.658391
  2445.000000    5.334930
  2446.000000    6.033195
  2447.000000    6.514027
  2448.000000    6.640313
  2449.000000    5.759591
  2450.000000    4.913070
  2451.000000    4.351020
  2452.000000    4.124578
  2453.000000    4.429727
  2454.000000    4.512989
  2455.000000    4.337306
  2456.000000    4.289486
  2457.000000    4.648591
  2458.000000    5.094058
  2459.000000    5.384748
  2460.000000    5.566509
  2461.000000    5.700820
  2462.000000    5.740631
  2463.000000    5.618435
  2464.000000    5.657272
  2465.000000    5.854507
  2466.000000    6.499249
  2467.000000    7.964415
  2468.000000    8.374436
  2469.000000    7.150871
  2470.000000    6.198361
  2471.000000    5.696332
  2472.000000    5.337716
  2473.000000    5.277613
  2474.000000    5.650337
  2475.000000    6.046722
  2476.000000    6.556046
  2477.000000    7.908573
  2478.000000    9.833874
  2479.000000   11.802021
  2480.000000   12.780478
  2481.000000   12.925571
  2482.000000   13.081289
  2483.000000   13.268476
  2484.000000   15.613578
  2485.000000   20.482557
  2486.000000   26.702770
  2487.000000   35.744311
  2488.000000   43.003136
  2489.000000   46.657069
  2490.000000   45.950327
  2491.000000   39.250748
  2492.000000   33.967161
  2493.000000   30.672238
  2494.000000   29.592719
  2495.000000   28.530596
  2496.000000   36.583943
  2497.000000   44.303911
  2498.000000   37.665603
  2499.000000   26.737517
  2500.000000   29.968653
